No.	AMP	Hi_L	Low_L	INT	COUNT	Si[MPa]	Quality
    1	 2,01	 2,03	 0,02	 6542	 1600	2147483647	  245
    2	 2,01	 2,04	 0,03	 6725	 1651	    4	  251
    3	 1,96	 1,99	 0,03	 6649	 1672	    2	  251
    4	 1,98	    2	 0,02	 6717	 1641	    4	  236
