No.	AMP	Hi_L	Low_L	INT	COUNT	Si[MPa]	Quality
    1	 1,18	 1,18	   -0	 3455	  714	    3	  255
    2	 1,11	 1,07	-0,04	 3142	  659	   -8	  271
    3	  1,2	 1,16	-0,04	 3813	  913	   -9	  258
    4	 1,45	 1,41	-0,04	 3437	  778	    6	  259
